* Measurement data measured by REW V5.30
* Source: Input device not selected, no input selected, L, volume: no control
* Format: 256k Log Swept Sine, 1 sweep at -18.0 dBFS with no timing reference
* Dated: Nov 16, 2024 12:22:01 AM
* REW Settings:
*  C-weighting compensation: Off
*  Target level: 75.0 dB
* Note: ; 
* Measurement: Senn 6XX (Ex) L3
* Smoothing: 1/12 octave
* Frequency Step: 1/48 octave
* Start Frequency: 20.300 Hz
*
* Freq(Hz)	SPL(dB)	Phase(degrees)
20.299999	78.046	-88.8850
20.600000	78.099	-89.1437
20.900000	78.226	-89.7035
21.200001	78.360	-90.3581
21.400000	78.444	-90.8248
21.799999	78.600	-91.8055
22.000000	78.670	-92.3055
22.400000	78.798	-93.2981
22.700001	78.886	-94.0089
23.000000	78.969	-94.6604
23.299999	79.049	-95.2227
23.600000	79.129	-95.6738
24.000000	79.242	-96.0934
24.299999	79.337	-96.3083
24.700001	79.485	-96.5770
25.000000	79.609	-96.8830
25.400000	79.779	-97.5758
25.799999	79.934	-98.6682
26.200001	80.056	-100.0786
26.500000	80.121	-101.2086
26.900000	80.183	-102.6021
27.200001	80.223	-103.4295
27.600000	80.289	-104.1469
28.000000	80.388	-104.4531
28.500000	80.562	-104.5051
29.000000	80.761	-104.5865
29.500000	80.938	-104.9896
30.000000	81.059	-105.7864
30.400000	81.114	-106.6224
30.700001	81.140	-107.2988
31.100000	81.171	-108.1884
31.500000	81.214	-109.0172
32.000000	81.302	-109.9481
32.500000	81.420	-110.7756
33.000000	81.545	-111.5032
33.500000	81.659	-112.1196
34.000000	81.758	-112.6445
34.500000	81.849	-113.1552
35.000000	81.939	-113.7460
35.500000	82.030	-114.4735
36.000000	82.120	-115.3164
36.500000	82.206	-116.1988
37.000000	82.288	-117.0324
37.500000	82.366	-117.7670
38.200001	82.472	-118.6381
38.700001	82.546	-119.2035
39.500000	82.657	-120.1291
40.000000	82.720	-120.7549
40.599998	82.790	-121.5645
41.200001	82.851	-122.4182
41.799999	82.899	-123.2572
42.500000	82.949	-124.1411
43.099998	82.998	-124.8277
43.700001	83.053	-125.5116
44.400002	83.116	-126.3340
45.000000	83.166	-127.0328
45.500000	83.207	-127.6070
46.200001	83.261	-128.4257
46.799999	83.298	-129.1242
47.500000	83.323	-129.8290
48.200001	83.341	-130.3423
48.700001	83.354	-130.6118
49.400002	83.379	-130.9174
50.000000	83.407	-131.1593
50.799999	83.460	-131.5404
51.500000	83.514	-132.0038
52.200001	83.562	-132.5656
53.000000	83.602	-133.1897
53.799999	83.639	-133.7057
54.500000	83.683	-134.1361
55.200001	83.732	-134.6718
56.000000	83.772	-135.4750
57.000000	83.773	-136.5817
58.000000	83.737	-137.4962
59.000000	83.698	-138.0801
60.000000	83.679	-138.3040
60.799999	83.698	-138.3337
61.500000	83.739	-138.3991
62.200001	83.789	-138.5906
63.000000	83.836	-138.9588
64.000000	83.864	-139.4668
65.000000	83.867	-139.7568
66.000000	83.887	-139.7372
67.000000	83.948	-139.5871
68.000000	84.042	-139.5440
69.000000	84.148	-139.7044
70.000000	84.252	-140.0524
71.000000	84.348	-140.5281
72.000000	84.430	-141.0476
73.000000	84.502	-141.5490
74.000000	84.570	-142.0209
75.000000	84.633	-142.4851
76.199997	84.708	-143.0695
77.500000	84.788	-143.7565
78.800003	84.866	-144.4764
80.000000	84.935	-145.1459
81.199997	85.003	-145.8272
82.500000	85.076	-146.6063
83.800003	85.140	-147.4426
85.000000	85.188	-148.2512
86.199997	85.225	-149.0771
87.500000	85.247	-149.9880
88.500000	85.252	-150.6896
90.000000	85.237	-151.6631
91.199997	85.208	-152.2809
92.500000	85.169	-152.7467
93.800003	85.138	-153.0401
95.000000	85.127	-153.2146
96.199997	85.137	-153.3560
97.500000	85.168	-153.5409
98.800003	85.212	-153.8197
100.000000	85.255	-154.1830
101.500000	85.303	-154.7514
103.000000	85.337	-155.3858
104.400002	85.358	-155.9974
106.000000	85.369	-156.6952
107.500000	85.371	-157.3267
109.000000	85.365	-157.9113
110.599998	85.353	-158.4754
112.000000	85.340	-158.9377
113.800003	85.322	-159.5217
115.000000	85.306	-159.9026
117.199997	85.259	-160.5164
118.000000	85.238	-160.6926
120.599998	85.171	-161.0273
122.000000	85.149	-161.0691
124.099998	85.145	-161.0833
125.000000	85.154	-161.1096
126.500000	85.178	-161.2011
128.000000	85.211	-161.3562
131.500000	85.289	-161.9576
132.000000	85.298	-162.0652
134.000000	85.327	-162.5299
136.000000	85.346	-163.0244
138.000000	85.359	-163.5151
140.000000	85.367	-163.9945
143.000000	85.368	-164.7024
145.000000	85.364	-165.1664
147.500000	85.358	-165.7280
150.000000	85.349	-166.2623
152.500000	85.335	-166.7770
155.000000	85.315	-167.2757
157.500000	85.286	-167.7542
160.000000	85.249	-168.1935
162.500000	85.211	-168.5820
165.000000	85.173	-168.9248
167.500000	85.135	-169.2278
170.000000	85.095	-169.4795
172.500000	85.056	-169.6648
175.000000	85.025	-169.7935
177.500000	85.003	-169.8957
180.000000	84.990	-170.0011
182.500000	84.981	-170.1317
185.000000	84.972	-170.2986
187.500000	84.962	-170.4962
190.000000	84.951	-170.7101
192.500000	84.939	-170.9254
195.000000	84.924	-171.1335
197.500000	84.906	-171.3335
200.000000	84.888	-171.5289
203.000000	84.865	-171.7617
206.000000	84.840	-171.9853
209.000000	84.812	-172.1905
212.000000	84.782	-172.3744
214.000000	84.761	-172.4815
218.000000	84.721	-172.6505
220.000000	84.702	-172.7158
224.000000	84.669	-172.8174
227.000000	84.646	-172.8699
230.000000	84.626	-172.9118
233.000000	84.609	-172.9646
236.000000	84.593	-173.0412
240.000000	84.573	-173.1669
243.000000	84.556	-173.2647
247.000000	84.531	-173.3929
250.000000	84.511	-173.4809
254.000000	84.485	-173.5812
258.000000	84.459	-173.6692
262.000000	84.432	-173.7502
265.000000	84.412	-173.8012
269.000000	84.386	-173.8526
272.000000	84.366	-173.8798
276.000000	84.341	-173.9042
280.000000	84.316	-173.9193
285.000000	84.285	-173.9339
290.000000	84.257	-173.9545
295.000000	84.227	-173.9827
300.000000	84.194	-174.0067
304.000000	84.166	-174.0027
307.000000	84.145	-173.9808
311.000000	84.121	-173.9353
315.000000	84.099	-173.8849
320.000000	84.074	-173.8195
325.000000	84.049	-173.7392
330.000000	84.026	-173.6418
335.000000	84.006	-173.5387
340.000000	83.986	-173.4445
345.000000	83.966	-173.3604
350.000000	83.944	-173.2729
355.000000	83.923	-173.1783
360.000000	83.903	-173.0841
365.000000	83.885	-172.9915
370.000000	83.868	-172.8972
375.000000	83.850	-172.7977
382.000000	83.822	-172.6451
387.000000	83.801	-172.5224
395.000000	83.767	-172.2959
400.000000	83.746	-172.1350
406.000000	83.726	-171.9225
412.000000	83.711	-171.6948
418.000000	83.702	-171.4654
425.000000	83.694	-171.2159
431.000000	83.688	-171.0219
437.000000	83.681	-170.8411
444.000000	83.673	-170.6397
450.000000	83.666	-170.4641
455.000000	83.660	-170.3102
462.000000	83.651	-170.0875
468.000000	83.643	-169.8998
475.000000	83.635	-169.6815
482.000000	83.628	-169.4450
487.000000	83.625	-169.2637
494.000000	83.623	-169.0066
500.000000	83.624	-168.7931
508.000000	83.626	-168.5244
515.000000	83.628	-168.3000
522.000000	83.632	-168.0824
530.000000	83.638	-167.8504
538.000000	83.644	-167.6422
545.000000	83.645	-167.4715
552.000000	83.641	-167.2933
560.000000	83.632	-167.0602
570.000000	83.620	-166.7068
580.000000	83.617	-166.2911
590.000000	83.625	-165.8584
600.000000	83.643	-165.4603
608.000000	83.660	-165.1804
615.000000	83.675	-164.9581
622.000000	83.686	-164.7438
630.000000	83.698	-164.4924
640.000000	83.713	-164.1569
650.000000	83.732	-163.8033
660.000000	83.757	-163.4625
670.000000	83.784	-163.1666
680.000000	83.809	-162.9021
690.000000	83.829	-162.6305
700.000000	83.850	-162.3338
710.000000	83.876	-162.0303
720.000000	83.908	-161.7468
730.000000	83.941	-161.4966
740.000000	83.975	-161.2836
750.000000	84.008	-161.1106
762.000000	84.040	-160.9437
775.000000	84.065	-160.7594
788.000000	84.087	-160.5289
800.000000	84.114	-160.3054
812.000000	84.145	-160.1264
825.000000	84.178	-160.0274
838.000000	84.201	-160.0398
850.000000	84.202	-160.1314
862.000000	84.172	-160.2495
875.000000	84.096	-160.2721
885.000000	84.007	-160.0680
900.000000	83.863	-159.1792
912.000000	83.791	-158.0021
925.000000	83.791	-156.5631
938.000000	83.860	-155.2690
950.000000	83.955	-154.3205
962.000000	84.057	-153.5863
975.000000	84.164	-152.9503
988.000000	84.266	-152.4026
1000.000000	84.357	-151.9353
1015.000000	84.476	-151.3875
1030.000000	84.604	-150.9240
1044.000000	84.726	-150.6230
1060.000000	84.858	-150.4277
1075.000000	84.968	-150.3374
1090.000000	85.063	-150.3015
1106.000000	85.146	-150.2722
1120.000000	85.210	-150.2040
1138.000000	85.289	-150.0541
1150.000000	85.343	-149.9377
1172.000000	85.445	-149.7241
1180.000000	85.484	-149.6546
1206.000000	85.610	-149.5045
1220.000000	85.673	-149.4902
1241.000000	85.747	-149.5116
1250.000000	85.772	-149.4988
1265.000000	85.809	-149.4041
1280.000000	85.852	-149.2289
1315.000000	85.995	-148.8895
1320.000000	86.017	-148.8812
1340.000000	86.087	-148.9393
1360.000000	86.124	-148.9954
1380.000000	86.140	-148.8724
1400.000000	86.162	-148.5288
1430.000000	86.243	-147.8472
1450.000000	86.320	-147.4994
1475.000000	86.408	-147.1849
1500.000000	86.485	-146.8243
1525.000000	86.575	-146.3687
1550.000000	86.685	-145.9955
1575.000000	86.786	-145.7306
1600.000000	86.879	-145.3905
1625.000000	86.991	-145.0216
1650.000000	87.112	-144.7756
1675.000000	87.223	-144.6091
1700.000000	87.330	-144.4478
1725.000000	87.438	-144.3065
1750.000000	87.543	-144.2103
1775.000000	87.640	-144.1177
1800.000000	87.736	-144.0033
1825.000000	87.835	-143.9240
1850.000000	87.926	-143.9027
1875.000000	88.004	-143.8727
1900.000000	88.076	-143.8264
1925.000000	88.132	-143.7724
1950.000000	88.166	-143.5957
1975.000000	88.195	-143.1470
2000.000000	88.254	-142.4681
2030.000000	88.372	-141.6045
2060.000000	88.522	-140.7817
2090.000000	88.705	-139.9856
2120.000000	88.923	-139.3576
2140.000000	89.072	-139.1010
2180.000000	89.341	-138.7281
2200.000000	89.475	-138.4585
2240.000000	89.799	-137.8852
2270.000000	90.077	-137.7083
2300.000000	90.357	-137.8141
2330.000000	90.622	-138.1504
2360.000000	90.864	-138.6123
2400.000000	91.167	-139.2601
2430.000000	91.391	-139.7525
2470.000000	91.698	-140.4798
2500.000000	91.930	-141.1489
2540.000000	92.228	-142.2116
2580.000000	92.516	-143.4137
2620.000000	92.787	-144.8013
2650.000000	92.971	-145.9271
2690.000000	93.197	-147.4714
2720.000000	93.354	-148.6499
2760.000000	93.552	-150.2315
2800.000000	93.742	-151.8734
2850.000000	93.958	-154.0547
2900.000000	94.136	-156.3347
2950.000000	94.282	-158.5916
3000.000000	94.405	-160.8197
3040.000000	94.489	-162.5499
3070.000000	94.551	-163.8196
3110.000000	94.633	-165.5302
3150.000000	94.712	-167.2999
3200.000000	94.794	-169.6090
3250.000000	94.852	-171.9720
3300.000000	94.894	-174.3464
3350.000000	94.924	-176.8082
3400.000000	94.928	-179.4067
3450.000000	94.896	177.8879
3500.000000	94.815	175.1145
3550.000000	94.673	172.4335
3600.000000	94.482	170.0169
3650.000000	94.265	167.9074
3700.000000	94.038	166.0594
3750.000000	93.811	164.4169
3820.000000	93.502	162.3000
3870.000000	93.277	160.8228
3950.000000	92.876	158.5793
4000.000000	92.592	157.3529
4060.000000	92.215	156.2011
4120.000000	91.809	155.5416
4180.000000	91.400	155.4640
4250.000000	90.960	156.1115
4310.000000	90.655	157.1953
4370.000000	90.449	158.5540
4440.000000	90.348	160.0715
4500.000000	90.354	161.0067
4550.000000	90.394	161.4522
4620.000000	90.469	161.5833
4680.000000	90.530	161.2919
4750.000000	90.575	160.5873
4820.000000	90.581	159.6312
4870.000000	90.559	158.8666
4940.000000	90.495	157.7752
5000.000000	90.416	156.8724
5080.000000	90.283	155.7298
5150.000000	90.142	154.7964
5220.000000	89.975	153.9810
5300.000000	89.757	153.3051
5380.000000	89.527	153.0425
5450.000000	89.349	153.2033
5520.000000	89.233	153.6182
5600.000000	89.203	154.0549
5700.000000	89.294	153.8509
5800.000000	89.413	152.3193
5900.000000	89.426	149.5508
6000.000000	89.250	146.1670
6080.000000	88.963	143.5049
6150.000000	88.609	141.4854
6220.000000	88.173	139.9662
6300.000000	87.604	139.0143
6400.000000	86.856	139.0113
6500.000000	86.131	140.1083
6600.000000	85.466	142.0837
6700.000000	84.884	144.7882
6800.000000	84.411	148.0702
6900.000000	84.073	151.7143
7000.000000	83.881	155.4697
7100.000000	83.831	159.1022
7200.000000	83.911	162.4055
7300.000000	84.101	165.2090
7400.000000	84.379	167.3551
7500.000000	84.713	168.6702
7620.000000	85.121	168.9762
7750.000000	85.477	167.8356
7880.000000	85.677	165.6216
8000.000000	85.706	163.1028
8120.000000	85.586	160.5420
8250.000000	85.309	158.1424
8380.000000	84.932	156.4252
8500.000000	84.554	155.4315
8620.000000	84.185	154.7792
8750.000000	83.807	154.1006
8850.000000	83.512	153.3952
9000.000000	82.979	152.0613
9120.000000	82.408	151.2359
9250.000000	81.618	151.3855
9380.000000	80.689	153.3411
9500.000000	79.785	157.1593
9620.000000	78.956	163.0059
9750.000000	78.341	171.3016
9880.000000	78.243	-179.2447
10000.000000	78.698	-170.6100
10150.000000	79.858	-161.5445
10300.000000	81.333	-155.7943
10440.000000	82.692	-154.1551
10600.000000	83.950	-156.6794
10750.000000	84.687	-162.1871
10900.000000	84.955	-168.8307
11060.000000	84.793	-175.1658
11200.000000	84.369	-179.0724
11380.000000	83.582	178.7267
11500.000000	82.982	179.1448
11720.000000	81.961	-176.2560
11800.000000	81.695	-173.5126
12060.000000	81.653	-162.1853
12200.000000	82.305	-155.6953
12410.000000	84.073	-147.7827
12500.000000	84.998	-145.7706
12650.000000	86.552	-145.1633
12800.000000	87.921	-148.5448
13150.000000	89.641	-168.7639
13200.000000	89.705	-172.2353
13400.000000	89.615	174.5968
13600.000000	89.176	163.4344
13800.000000	88.597	153.9387
14000.000000	87.968	145.2776
14300.000000	86.945	132.6834
14500.000000	86.197	123.9896
14750.000000	85.119	112.2456
15000.000000	83.729	99.8517
15250.000000	81.906	87.8788
15500.000000	79.689	76.2358
15750.000000	77.269	62.3266
16000.000000	75.044	42.0647
16250.000000	73.885	12.8319
16500.000000	74.457	-23.6453
16750.000000	75.785	-62.1337
17000.000000	76.640	-97.3964
17250.000000	76.531	-125.2770
17500.000000	75.394	-141.7603
17750.000000	73.390	-143.1614
18000.000000	71.079	-129.1209
18250.000000	69.925	-106.3982
18500.000000	70.953	-85.6865
18750.000000	72.972	-72.9881
19000.000000	74.968	-68.2280
19250.000000	76.663	-69.2559
19500.000000	77.977	-73.8491
19750.000000	78.869	-79.5388
