* Measurement data measured by REW V5.30
* Source: EXCL: FiiO JA11 (2- JadeAudio JA11), MICROPHONE (Master Volume), 0, volume: 1.000
* Format: 256k Log Swept Sine, 1 sweep at -18.0 dBFS with no timing reference
* Dated: Dec 8, 2024 2:58:18 PM
* REW Settings:
*  C-weighting compensation: Off
*  Target level: 75.0 dB
* Note: ; 
* Measurement: Aeolus (Au Hy Perf) R1
* Smoothing: 1/24 octave
* Frequency Step: 1/48 octave
* Start Frequency: 20.300 Hz
*
* Freq(Hz) SPL(dB) Phase(degrees)
20.299999 82.407 -95.1725
20.600000 82.496 -95.9267
20.900000 82.596 -96.7266
21.200001 82.696 -97.5166
21.400000 82.762 -98.0379
21.799999 82.893 -99.0681
22.000000 82.956 -99.5756
22.400000 83.080 -100.5717
22.700001 83.171 -101.3032
23.000000 83.260 -102.0251
23.299999 83.346 -102.7403
23.600000 83.430 -103.4485
24.000000 83.537 -104.3731
24.299999 83.616 -105.0434
24.700001 83.719 -105.8987
25.000000 83.795 -106.5129
25.400000 83.898 -107.3040
25.799999 83.997 -108.0738
26.200001 84.091 -108.8288
26.500000 84.157 -109.3878
26.900000 84.239 -110.1294
27.200001 84.299 -110.6897
27.600000 84.377 -111.4534
28.000000 84.455 -112.2448
28.500000 84.558 -113.2722
29.000000 84.662 -114.3153
29.500000 84.758 -115.3060
30.000000 84.838 -116.1409
30.400000 84.891 -116.6436
30.700001 84.928 -116.9306
31.100000 84.980 -117.2580
31.500000 85.038 -117.6349
32.000000 85.109 -118.3349
32.500000 85.162 -119.3088
33.000000 85.191 -120.3803
33.500000 85.219 -121.3272
34.000000 85.275 -122.0738
34.500000 85.366 -122.7122
35.000000 85.471 -123.3571
35.500000 85.560 -124.0228
36.000000 85.623 -124.6535
36.500000 85.672 -125.2228
37.000000 85.721 -125.7696
37.500000 85.775 -126.3508
38.200001 85.857 -127.2520
38.700001 85.915 -127.9287
39.500000 85.999 -128.9927
40.000000 86.048 -129.6167
40.599998 86.110 -130.3299
41.200001 86.171 -131.0522
41.799999 86.220 -131.8074
42.500000 86.254 -132.6622
43.099998 86.277 -133.3295
43.700001 86.314 -134.0030
44.400002 86.370 -134.8875
45.000000 86.407 -135.6495
45.500000 86.424 -136.1845
46.200001 86.437 -136.7595
46.799999 86.442 -137.2199
47.500000 86.445 -137.8652
48.200001 86.458 -138.6407
48.700001 86.484 -139.2657
49.400002 86.527 -140.1946
50.000000 86.544 -140.8961
50.799999 86.529 -141.4458
51.500000 86.506 -141.6656
52.200001 86.483 -141.9423
53.000000 86.448 -142.4062
53.799999 86.420 -142.8266
54.500000 86.418 -143.0805
55.200001 86.431 -143.2682
56.000000 86.448 -143.4752
57.000000 86.463 -143.7914
58.000000 86.495 -144.1690
59.000000 86.548 -144.5950
60.000000 86.585 -144.9455
60.799999 86.603 -145.1385
61.500000 86.624 -145.3083
62.200001 86.658 -145.5190
63.000000 86.711 -145.8065
64.000000 86.782 -146.1934
65.000000 86.845 -146.5919
66.000000 86.906 -147.0036
67.000000 86.969 -147.4887
68.000000 87.007 -148.0932
69.000000 87.018 -148.7096
70.000000 87.031 -149.2892
71.000000 87.046 -149.8506
72.000000 87.043 -150.3536
73.000000 87.028 -150.7567
74.000000 87.020 -151.0872
75.000000 87.023 -151.3719
76.199997 87.035 -151.6396
77.500000 87.057 -151.9095
78.800003 87.078 -152.2237
80.000000 87.098 -152.5833
81.199997 87.121 -152.9287
82.500000 87.147 -153.2542
83.800003 87.172 -153.5664
85.000000 87.200 -153.8786
86.199997 87.221 -154.2049
87.500000 87.241 -154.4867
88.500000 87.267 -154.6649
90.000000 87.307 -154.9281
91.199997 87.336 -155.1121
92.500000 87.368 -155.4271
93.800003 87.392 -155.8378
95.000000 87.418 -156.1991
96.199997 87.445 -156.4748
97.500000 87.469 -156.8126
98.800003 87.496 -157.3659
100.000000 87.527 -157.8688
101.500000 87.570 -158.1255
103.000000 87.595 -158.4568
104.400002 87.590 -158.8362
106.000000 87.584 -159.1456
107.500000 87.582 -159.5248
109.000000 87.591 -159.8829
110.599998 87.611 -160.2163
112.000000 87.629 -160.4431
113.800003 87.653 -160.8075
115.000000 87.669 -161.1036
117.199997 87.694 -161.6461
118.000000 87.701 -161.8451
120.599998 87.699 -162.5008
122.000000 87.685 -162.8304
124.099998 87.660 -163.2556
125.000000 87.652 -163.4176
126.500000 87.641 -163.6580
128.000000 87.630 -163.8520
131.500000 87.602 -164.2084
132.000000 87.599 -164.2465
134.000000 87.590 -164.3935
136.000000 87.586 -164.5838
138.000000 87.585 -164.7751
140.000000 87.584 -164.9166
143.000000 87.575 -165.1947
145.000000 87.557 -165.3107
147.500000 87.534 -165.1770
150.000000 87.500 -165.1765
152.500000 87.544 -165.0382
155.000000 87.608 -164.9319
157.500000 87.639 -165.0479
160.000000 87.658 -165.3159
162.500000 87.745 -165.2890
165.000000 87.817 -165.3537
167.500000 87.861 -165.5861
170.000000 87.904 -165.8417
172.500000 87.952 -166.1449
175.000000 88.003 -166.4654
177.500000 88.058 -166.7839
180.000000 88.105 -167.3725
182.500000 88.135 -168.0793
185.000000 88.140 -168.4409
187.500000 88.126 -168.5883
190.000000 88.120 -168.9808
192.500000 88.133 -169.3646
195.000000 88.140 -169.5356
197.500000 88.153 -169.7522
200.000000 88.165 -169.9422
203.000000 88.151 -170.2147
206.000000 88.160 -170.7832
209.000000 88.187 -171.1070
212.000000 88.174 -171.3404
214.000000 88.159 -171.4610
218.000000 88.133 -171.8215
220.000000 88.109 -171.8481
224.000000 88.088 -171.6013
227.000000 88.115 -171.5939
230.000000 88.162 -171.6550
233.000000 88.216 -171.7811
236.000000 88.289 -171.9926
240.000000 88.438 -171.9654
243.000000 88.438 -172.4672
247.000000 88.414 -173.3266
250.000000 88.417 -173.8559
254.000000 88.405 -174.5223
258.000000 88.401 -174.9526
262.000000 88.414 -175.3808
265.000000 88.417 -175.7334
269.000000 88.404 -176.1468
272.000000 88.397 -176.4080
276.000000 88.390 -176.8031
280.000000 88.381 -177.1915
285.000000 88.385 -177.6461
290.000000 88.369 -178.1850
295.000000 88.333 -178.8168
300.000000 88.338 -179.1864
304.000000 88.352 -179.3325
307.000000 88.346 -179.5096
311.000000 88.331 -179.9307
315.000000 88.315 179.5427
320.000000 88.290 178.8855
325.000000 88.279 178.4040
330.000000 88.261 177.9776
335.000000 88.214 177.4214
340.000000 88.136 176.6868
345.000000 88.077 176.2901
350.000000 88.037 175.9167
355.000000 87.996 175.5535
360.000000 87.943 175.4141
365.000000 87.884 175.2272
370.000000 87.823 175.0133
375.000000 87.769 174.7614
382.000000 87.693 174.4952
387.000000 87.637 174.2921
395.000000 87.571 173.9568
400.000000 87.545 173.5823
406.000000 87.514 173.3219
412.000000 87.456 173.0318
418.000000 87.369 172.6555
425.000000 87.250 172.1605
431.000000 87.132 171.8788
437.000000 87.001 171.9202
444.000000 86.851 172.0250
450.000000 86.753 172.2271
455.000000 86.695 172.4474
462.000000 86.635 172.6876
468.000000 86.595 172.8271
475.000000 86.548 172.9032
482.000000 86.478 172.9820
487.000000 86.424 173.0398
494.000000 86.350 173.0651
500.000000 86.284 173.0444
508.000000 86.183 173.0957
515.000000 86.074 173.2710
522.000000 85.953 173.5710
530.000000 85.830 174.1625
538.000000 85.739 174.7772
545.000000 85.664 175.3112
552.000000 85.595 175.9441
560.000000 85.536 176.7652
570.000000 85.500 177.7943
580.000000 85.505 178.7609
590.000000 85.515 179.5210
600.000000 85.512 -179.7339
608.000000 85.519 -179.0834
615.000000 85.539 -178.5346
622.000000 85.570 -178.0261
630.000000 85.611 -177.4146
640.000000 85.695 -176.6528
650.000000 85.800 -176.2161
660.000000 85.887 -176.0276
670.000000 85.945 -176.0110
680.000000 85.977 -175.9202
690.000000 86.018 -175.6894
700.000000 86.072 -175.5132
710.000000 86.121 -175.3959
720.000000 86.169 -175.2507
730.000000 86.237 -175.1350
740.000000 86.299 -175.1935
750.000000 86.335 -175.1555
762.000000 86.403 -175.0683
775.000000 86.508 -175.1445
788.000000 86.635 -175.5281
800.000000 86.730 -176.2856
812.000000 86.767 -177.2739
825.000000 86.749 -178.3816
838.000000 86.677 -179.6337
850.000000 86.515 179.4965
862.000000 86.319 179.2548
875.000000 86.126 179.5719
885.000000 86.032 -179.8394
900.000000 85.970 -179.1573
912.000000 85.937 -178.8070
925.000000 85.905 -178.5817
938.000000 85.854 -178.4403
950.000000 85.804 -178.2659
962.000000 85.741 -178.0693
975.000000 85.657 -177.7695
988.000000 85.556 -177.2847
1000.000000 85.471 -176.4723
1015.000000 85.459 -175.1490
1030.000000 85.506 -174.4663
1044.000000 85.524 -174.0347
1060.000000 85.513 -173.6559
1075.000000 85.463 -173.0285
1090.000000 85.451 -172.0156
1106.000000 85.501 -170.9481
1120.000000 85.560 -170.2056
1138.000000 85.675 -169.3168
1150.000000 85.762 -169.0716
1172.000000 85.841 -168.9325
1180.000000 85.845 -168.7896
1206.000000 85.879 -167.2917
1220.000000 86.053 -166.2492
1241.000000 86.337 -166.5019
1250.000000 86.402 -166.8008
1265.000000 86.476 -167.1829
1280.000000 86.537 -167.5591
1315.000000 86.531 -168.3368
1320.000000 86.525 -168.3128
1340.000000 86.535 -168.1248
1360.000000 86.557 -168.0497
1380.000000 86.572 -167.8930
1400.000000 86.607 -167.6964
1430.000000 86.634 -167.6879
1450.000000 86.643 -167.3272
1475.000000 86.717 -166.9569
1500.000000 86.781 -166.9303
1525.000000 86.823 -166.8948
1550.000000 86.854 -166.7797
1575.000000 86.897 -166.6749
1600.000000 86.941 -166.5871
1625.000000 86.984 -166.6351
1650.000000 86.997 -166.8085
1675.000000 86.950 -166.9661
1700.000000 86.859 -166.3969
1725.000000 86.866 -165.2035
1750.000000 86.977 -164.3308
1775.000000 87.101 -163.9470
1800.000000 87.204 -163.7573
1825.000000 87.296 -163.6483
1850.000000 87.374 -163.6136
1875.000000 87.442 -163.5166
1900.000000 87.511 -163.4676
1925.000000 87.567 -163.4222
1950.000000 87.622 -163.2911
1975.000000 87.685 -163.1446
2000.000000 87.752 -163.0478
2030.000000 87.827 -162.9297
2060.000000 87.907 -162.7677
2090.000000 87.992 -162.6508
2120.000000 88.076 -162.5566
2140.000000 88.130 -162.5035
2180.000000 88.239 -162.3592
2200.000000 88.295 -162.2754
2240.000000 88.411 -162.0862
2270.000000 88.500 -161.8818
2300.000000 88.608 -161.5789
2330.000000 88.749 -161.3013
2360.000000 88.912 -161.1707
2400.000000 89.147 -161.2380
2430.000000 89.332 -161.4871
2470.000000 89.577 -162.1231
2500.000000 89.742 -162.8367
2540.000000 89.921 -163.9249
2580.000000 90.067 -164.9976
2620.000000 90.205 -166.0577
2650.000000 90.300 -166.9229
2690.000000 90.403 -168.1459
2720.000000 90.463 -169.0247
2760.000000 90.540 -170.0803
2800.000000 90.630 -171.1712
2850.000000 90.734 -172.7512
2900.000000 90.806 -174.4694
2950.000000 90.843 -176.2568
3000.000000 90.842 -178.0555
3040.000000 90.810 -179.4370
3070.000000 90.769 179.6134
3110.000000 90.699 178.5591
3150.000000 90.645 177.8506
3200.000000 90.675 177.1099
3250.000000 90.784 175.6744
3300.000000 90.854 173.3843
3350.000000 90.820 170.6282
3400.000000 90.663 167.8232
3450.000000 90.409 165.3341
3500.000000 90.098 163.2642
3550.000000 89.753 161.5706
3600.000000 89.388 160.2093
3650.000000 89.010 159.1311
3700.000000 88.619 158.3061
3750.000000 88.213 157.7275
3820.000000 87.625 157.3608
3870.000000 87.195 157.3808
3950.000000 86.476 157.9179
4000.000000 86.000 158.6432
4060.000000 85.404 160.0261
4120.000000 84.783 162.0811
4180.000000 84.147 165.0197
4250.000000 83.447 169.7126
4310.000000 82.873 174.5749
4370.000000 82.285 -178.9882
4440.000000 81.774 -167.9597
4500.000000 81.837 -155.0666
4550.000000 82.548 -142.6527
4620.000000 84.805 -127.0486
4680.000000 87.570 -120.2206
4750.000000 90.821 -122.8446
4820.000000 93.130 -134.9219
4870.000000 93.894 -146.0128
4940.000000 93.863 -159.6670
5000.000000 93.303 -166.9754
5080.000000 92.597 -170.6926
5150.000000 92.401 -170.6428
5220.000000 92.691 -169.8971
5300.000000 93.507 -170.5428
5380.000000 94.579 -174.3450
5450.000000 95.489 179.2920
5520.000000 96.158 170.3258
5600.000000 96.426 157.9928
5700.000000 95.894 142.0698
5800.000000 94.519 128.3678
5900.000000 92.563 118.7076
6000.000000 90.338 113.7792
6080.000000 88.544 113.1544
6150.000000 87.061 114.8382
6220.000000 85.734 118.3503
6300.000000 84.495 123.9697
6400.000000 83.396 131.9634
6500.000000 82.695 140.0025
6600.000000 82.313 147.8376
6700.000000 82.208 154.9542
6800.000000 82.285 161.0049
6900.000000 82.458 166.1600
7000.000000 82.699 170.8214
7100.000000 83.041 175.2432
7200.000000 83.551 179.2676
7300.000000 84.246 -177.8512
7400.000000 85.029 -176.8614
7500.000000 85.759 -177.7459
7620.000000 86.478 179.4221
7750.000000 87.009 174.5148
7880.000000 87.135 168.3043
8000.000000 86.812 162.7599
8120.000000 86.105 158.9188
8250.000000 85.103 158.4407
8380.000000 84.324 162.7497
8500.000000 84.307 169.0781
8620.000000 85.038 173.6026
8750.000000 86.247 173.6622
8850.000000 87.179 170.0193
9000.000000 88.149 159.1368
9120.000000 88.230 147.0372
9250.000000 87.350 133.1578
9380.000000 85.403 122.0345
9500.000000 82.809 117.8240
9620.000000 79.895 123.3854
9750.000000 77.547 141.9648
9880.000000 77.218 162.9716
10000.000000 78.101 174.9792
10150.000000 79.421 -178.1592
10300.000000 80.480 -175.4656
10440.000000 81.321 -173.9406
10600.000000 82.379 -173.3414
10750.000000 83.427 -175.9472
10900.000000 84.079 177.4628
11060.000000 83.864 169.1121
11200.000000 82.986 164.7847
11380.000000 81.646 166.3610
11500.000000 81.099 171.0291
11720.000000 81.255 -179.1189
11800.000000 81.617 -176.3674
12060.000000 83.423 -173.1406
12200.000000 84.520 -175.4710
12410.000000 86.004 176.2311
12500.000000 86.541 171.1294
12650.000000 87.265 160.6037
12800.000000 87.670 147.4395
13150.000000 86.164 111.1838
13200.000000 85.614 106.5010
13400.000000 82.783 91.9311
13600.000000 79.513 86.1142
13800.000000 76.998 87.8494
14000.000000 76.057 86.2602
14300.000000 75.318 67.6102
14500.000000 74.560 46.5589
14750.000000 73.657 11.0483
15000.000000 73.556 -27.8855
15250.000000 74.635 -59.3225
15500.000000 76.198 -82.2152
15750.000000 77.569 -101.0055
16000.000000 78.215 -118.2474
16250.000000 77.800 -133.0110
16500.000000 76.339 -140.6665
16750.000000 74.974 -137.8421
17000.000000 74.787 -133.5665
17250.000000 74.835 -135.9846
17500.000000 73.833 -142.0947
17750.000000 71.376 -139.5458
18000.000000 69.787 -111.9866
18250.000000 71.503 -92.5320
18500.000000 73.236 -94.0485
18750.000000 73.876 -99.9061
19000.000000 74.027 -104.1992
19250.000000 74.256 -107.5234
19500.000000 74.695 -112.1804
19750.000000 75.158 -119.5184
20000.000000 75.396 -127.2079
