* Measurement data measured by REW V5.30
* Source: EXCL: FiiO JA11 (2- JadeAudio JA11), MICROPHONE (Master Volume), 0, volume: 1.000
* Format: 256k Log Swept Sine, 1 sweep at -18.0 dBFS with no timing reference
* Dated: Dec 8, 2024 2:58:44 PM
* REW Settings:
*  C-weighting compensation: Off
*  Target level: 75.0 dB
* Note: ; 
* Measurement: Aeolus (Au Hy Perf) R2
* Smoothing: 1/24 octave
* Frequency Step: 1/48 octave
* Start Frequency: 20.300 Hz
*
* Freq(Hz) SPL(dB) Phase(degrees)
20.299999 82.090 -93.9544
20.600000 82.179 -94.7117
20.900000 82.278 -95.5145
21.200001 82.377 -96.2989
21.400000 82.443 -96.8077
21.799999 82.575 -97.7853
22.000000 82.642 -98.2523
22.400000 82.775 -99.1440
22.700001 82.871 -99.7850
23.000000 82.964 -100.4157
23.299999 83.052 -101.0485
23.600000 83.132 -101.6913
24.000000 83.229 -102.5654
24.299999 83.295 -103.2271
24.700001 83.383 -104.1056
25.000000 83.453 -104.7578
25.400000 83.553 -105.6213
25.799999 83.662 -106.4835
26.200001 83.772 -107.3388
26.500000 83.849 -107.9623
26.900000 83.943 -108.7453
27.200001 84.005 -109.2859
27.600000 84.083 -109.9513
28.000000 84.159 -110.5891
28.500000 84.257 -111.4254
29.000000 84.356 -112.3579
29.500000 84.451 -113.3592
30.000000 84.543 -114.3518
30.400000 84.618 -115.1033
30.700001 84.675 -115.6406
31.100000 84.753 -116.3336
31.500000 84.828 -117.0109
32.000000 84.912 -117.8334
32.500000 84.982 -118.6037
33.000000 85.041 -119.2974
33.500000 85.094 -119.9180
34.000000 85.147 -120.4991
34.500000 85.202 -121.0881
35.000000 85.259 -121.7215
35.500000 85.313 -122.4040
36.000000 85.364 -123.1066
36.500000 85.415 -123.7872
37.000000 85.471 -124.4201
37.500000 85.533 -125.0111
38.200001 85.629 -125.8302
38.700001 85.693 -126.4583
39.500000 85.777 -127.5550
40.000000 85.821 -128.2483
40.599998 85.877 -129.0325
41.200001 85.945 -129.7703
41.799999 86.010 -130.4797
42.500000 86.055 -131.2126
43.099998 86.069 -131.7306
43.700001 86.082 -132.2652
44.400002 86.109 -133.0861
45.000000 86.139 -133.8860
45.500000 86.171 -134.4917
46.200001 86.231 -135.2096
46.799999 86.271 -135.8079
47.500000 86.276 -136.5140
48.200001 86.267 -137.1786
48.700001 86.284 -137.7018
49.400002 86.332 -138.5996
50.000000 86.356 -139.3661
50.799999 86.342 -139.9496
51.500000 86.324 -140.1010
52.200001 86.317 -140.3249
53.000000 86.302 -140.8163
53.799999 86.287 -141.2827
54.500000 86.288 -141.5584
55.200001 86.298 -141.7820
56.000000 86.311 -142.0481
57.000000 86.329 -142.3554
58.000000 86.362 -142.5173
59.000000 86.415 -142.7452
60.000000 86.454 -143.1772
60.799999 86.482 -143.4688
61.500000 86.523 -143.6538
62.200001 86.572 -143.8390
63.000000 86.626 -144.0814
64.000000 86.689 -144.4609
65.000000 86.750 -144.9200
66.000000 86.812 -145.3883
67.000000 86.876 -145.9245
68.000000 86.930 -146.5316
69.000000 86.967 -147.1292
70.000000 86.992 -147.7326
71.000000 87.009 -148.3725
72.000000 87.023 -148.9757
73.000000 87.031 -149.4505
74.000000 87.026 -149.8188
75.000000 87.017 -150.1595
76.199997 87.021 -150.5445
77.500000 87.040 -150.8957
78.800003 87.049 -151.2359
80.000000 87.064 -151.4956
81.199997 87.102 -151.7703
82.500000 87.125 -152.1442
83.800003 87.135 -152.4675
85.000000 87.157 -152.7451
86.199997 87.189 -153.0563
87.500000 87.224 -153.4098
88.500000 87.251 -153.6433
90.000000 87.281 -153.9613
91.199997 87.308 -154.2713
92.500000 87.347 -154.6535
93.800003 87.386 -155.0072
95.000000 87.417 -155.3385
96.199997 87.459 -155.7137
97.500000 87.495 -156.2114
98.800003 87.509 -156.8112
100.000000 87.512 -157.2825
101.500000 87.521 -157.5171
103.000000 87.527 -157.7776
104.400002 87.537 -158.1638
106.000000 87.542 -158.5062
107.500000 87.547 -158.7745
109.000000 87.562 -159.0112
110.599998 87.594 -159.2505
112.000000 87.626 -159.5465
113.800003 87.652 -159.9799
115.000000 87.661 -160.3157
117.199997 87.669 -160.9382
118.000000 87.672 -161.1653
120.599998 87.669 -161.8820
122.000000 87.660 -162.2258
124.099998 87.638 -162.6733
125.000000 87.627 -162.8545
126.500000 87.605 -163.1240
128.000000 87.584 -163.3321
131.500000 87.556 -163.7202
132.000000 87.553 -163.7652
134.000000 87.546 -163.9433
136.000000 87.537 -164.0810
138.000000 87.519 -164.2656
140.000000 87.499 -164.4923
143.000000 87.479 -164.6160
145.000000 87.468 -164.6321
147.500000 87.454 -164.4519
150.000000 87.455 -164.0905
152.500000 87.500 -164.0038
155.000000 87.558 -164.0153
157.500000 87.643 -163.8789
160.000000 87.722 -163.7384
162.500000 87.748 -164.1595
165.000000 87.782 -164.6272
167.500000 87.829 -165.0728
170.000000 87.882 -165.4129
172.500000 87.917 -165.6047
175.000000 87.946 -165.8632
177.500000 87.976 -166.1497
180.000000 87.999 -166.7150
182.500000 88.019 -167.2938
185.000000 88.055 -167.3318
187.500000 88.093 -167.6700
190.000000 88.129 -168.1094
192.500000 88.172 -168.3982
195.000000 88.164 -168.5341
197.500000 88.152 -168.9720
200.000000 88.181 -169.5647
203.000000 88.171 -169.7187
206.000000 88.157 -169.6751
209.000000 88.143 -169.9713
212.000000 88.139 -170.4171
214.000000 88.138 -170.6575
218.000000 88.142 -170.8955
220.000000 88.146 -170.8161
224.000000 88.122 -170.7568
227.000000 88.126 -170.7680
230.000000 88.170 -170.8884
233.000000 88.232 -170.9712
236.000000 88.230 -170.5193
240.000000 88.177 -170.1366
243.000000 88.295 -171.3002
247.000000 88.395 -172.4871
250.000000 88.408 -172.9854
254.000000 88.409 -173.6202
258.000000 88.412 -174.2755
262.000000 88.410 -174.7479
265.000000 88.407 -175.0242
269.000000 88.402 -175.3802
272.000000 88.397 -175.6328
276.000000 88.393 -175.9554
280.000000 88.391 -176.2939
285.000000 88.386 -176.7194
290.000000 88.383 -177.2353
295.000000 88.375 -177.9483
300.000000 88.363 -178.3700
304.000000 88.368 -178.4938
307.000000 88.374 -178.7363
311.000000 88.377 -179.1643
315.000000 88.370 -179.6169
320.000000 88.358 179.9337
325.000000 88.346 179.3758
330.000000 88.320 178.7471
335.000000 88.270 178.1400
340.000000 88.196 177.5578
345.000000 88.147 177.1548
350.000000 88.121 176.8257
355.000000 88.075 176.6074
360.000000 87.991 176.3235
365.000000 87.911 176.0245
370.000000 87.864 175.8620
375.000000 87.814 175.6535
382.000000 87.729 175.3086
387.000000 87.679 175.1647
395.000000 87.629 175.1163
400.000000 87.622 175.0701
406.000000 87.594 174.6772
412.000000 87.545 174.1655
418.000000 87.478 173.6572
425.000000 87.366 173.1069
431.000000 87.250 172.8397
437.000000 87.136 172.7835
444.000000 87.013 172.8368
450.000000 86.922 172.9878
455.000000 86.864 173.1647
462.000000 86.802 173.3720
468.000000 86.757 173.4730
475.000000 86.711 173.5006
482.000000 86.664 173.4319
487.000000 86.626 173.3435
494.000000 86.561 173.1756
500.000000 86.485 173.0242
508.000000 86.357 172.9177
515.000000 86.230 172.9828
522.000000 86.094 173.2532
530.000000 85.956 173.8428
538.000000 85.847 174.5171
545.000000 85.768 175.1340
552.000000 85.699 175.7981
560.000000 85.636 176.6498
570.000000 85.609 177.7777
580.000000 85.614 178.7744
590.000000 85.639 179.4691
600.000000 85.656 -179.9722
608.000000 85.670 -179.4966
615.000000 85.681 -179.1008
622.000000 85.688 -178.7492
630.000000 85.698 -178.2736
640.000000 85.726 -177.6705
650.000000 85.754 -177.1817
660.000000 85.802 -176.6727
670.000000 85.854 -176.3028
680.000000 85.905 -175.9020
690.000000 85.976 -175.4701
700.000000 86.045 -175.1523
710.000000 86.108 -174.8749
720.000000 86.187 -174.6186
730.000000 86.272 -174.5447
740.000000 86.340 -174.5917
750.000000 86.400 -174.5387
762.000000 86.504 -174.5442
775.000000 86.630 -174.7558
788.000000 86.765 -175.3257
800.000000 86.862 -176.2403
812.000000 86.906 -177.3355
825.000000 86.890 -178.5923
838.000000 86.790 -179.9671
850.000000 86.606 179.1598
862.000000 86.402 178.9724
875.000000 86.215 179.4636
885.000000 86.143 -179.9075
900.000000 86.110 -179.5564
912.000000 86.065 -179.4378
925.000000 86.006 -179.3763
938.000000 85.924 -179.3044
950.000000 85.840 -179.1700
962.000000 85.731 -178.9738
975.000000 85.608 -178.3825
988.000000 85.510 -177.6026
1000.000000 85.442 -176.6498
1015.000000 85.458 -175.2685
1030.000000 85.538 -174.6048
1044.000000 85.570 -174.4141
1060.000000 85.538 -174.2356
1075.000000 85.449 -173.7305
1090.000000 85.393 -172.5540
1106.000000 85.440 -171.1861
1120.000000 85.527 -170.3710
1138.000000 85.645 -169.6926
1150.000000 85.710 -169.5096
1172.000000 85.764 -169.0518
1180.000000 85.790 -168.8074
1206.000000 85.825 -168.2235
1220.000000 85.831 -167.4303
1241.000000 85.995 -165.5937
1250.000000 86.150 -165.1044
1265.000000 86.408 -165.3355
1280.000000 86.558 -166.2660
1315.000000 86.550 -167.3333
1320.000000 86.553 -167.3112
1340.000000 86.578 -167.3522
1360.000000 86.585 -167.2924
1380.000000 86.617 -167.0429
1400.000000 86.680 -166.9429
1430.000000 86.708 -166.9710
1450.000000 86.732 -166.7305
1475.000000 86.778 -166.4701
1500.000000 86.840 -166.2077
1525.000000 86.910 -166.0462
1550.000000 86.983 -165.9185
1575.000000 87.059 -165.9873
1600.000000 87.115 -166.0440
1625.000000 87.177 -166.2175
1650.000000 87.208 -166.6496
1675.000000 87.147 -167.0670
1700.000000 87.031 -166.6321
1725.000000 87.022 -165.4388
1750.000000 87.133 -164.5943
1775.000000 87.258 -164.3230
1800.000000 87.349 -164.2821
1825.000000 87.419 -164.2608
1850.000000 87.472 -164.2390
1875.000000 87.518 -164.1340
1900.000000 87.565 -163.9926
1925.000000 87.610 -163.8178
1950.000000 87.660 -163.5646
1975.000000 87.726 -163.2614
2000.000000 87.805 -163.0103
2030.000000 87.907 -162.7737
2060.000000 88.023 -162.6005
2090.000000 88.142 -162.6130
2120.000000 88.247 -162.7520
2140.000000 88.304 -162.8667
2180.000000 88.399 -162.9909
2200.000000 88.444 -163.0152
2240.000000 88.530 -162.9513
2270.000000 88.601 -162.7723
2300.000000 88.694 -162.4742
2330.000000 88.821 -162.1826
2360.000000 88.975 -162.0160
2400.000000 89.211 -162.0586
2430.000000 89.395 -162.3589
2470.000000 89.628 -163.0539
2500.000000 89.784 -163.7961
2540.000000 89.948 -164.9026
2580.000000 90.083 -165.9749
2620.000000 90.207 -167.0598
2650.000000 90.289 -167.9333
2690.000000 90.374 -169.1187
2720.000000 90.424 -169.9487
2760.000000 90.492 -170.9481
2800.000000 90.572 -171.9913
2850.000000 90.667 -173.4905
2900.000000 90.733 -175.1746
2950.000000 90.758 -176.9307
3000.000000 90.745 -178.6625
3040.000000 90.706 -179.9807
3070.000000 90.662 179.1199
3110.000000 90.591 178.1068
3150.000000 90.536 177.3664
3200.000000 90.544 176.5393
3250.000000 90.611 175.1230
3300.000000 90.636 173.0197
3350.000000 90.569 170.5748
3400.000000 90.400 168.1155
3450.000000 90.145 165.9445
3500.000000 89.838 164.1482
3550.000000 89.496 162.7045
3600.000000 89.131 161.6237
3650.000000 88.751 160.8708
3700.000000 88.363 160.4341
3750.000000 87.968 160.3120
3820.000000 87.421 160.6995
3870.000000 87.045 161.3215
3950.000000 86.469 162.7826
4000.000000 86.121 163.9523
4060.000000 85.709 165.6014
4120.000000 85.286 167.5790
4180.000000 84.846 170.1024
4250.000000 84.348 173.9056
4310.000000 83.914 177.7956
4370.000000 83.449 -176.8881
4440.000000 83.053 -167.7099
4500.000000 83.107 -157.0615
4550.000000 83.667 -146.6044
4620.000000 85.571 -132.4401
4680.000000 88.094 -125.3939
4750.000000 91.220 -127.1674
4820.000000 93.512 -138.5549
4870.000000 94.298 -149.3736
4940.000000 94.317 -162.9931
5000.000000 93.795 -170.5943
5080.000000 93.094 -175.0577
5150.000000 92.840 -175.7657
5220.000000 93.021 -175.6536
5300.000000 93.674 -176.7391
5380.000000 94.567 179.3998
5450.000000 95.329 173.2905
5520.000000 95.874 164.8004
5600.000000 96.033 153.1814
5700.000000 95.416 138.3058
5800.000000 94.013 125.7022
5900.000000 92.083 117.0332
6000.000000 89.920 112.8936
6080.000000 88.186 112.7686
6150.000000 86.762 114.8406
6220.000000 85.504 118.7107
6300.000000 84.364 124.6607
6400.000000 83.417 132.8197
6500.000000 82.887 140.5894
6600.000000 82.656 147.6143
6700.000000 82.645 153.5595
6800.000000 82.748 158.2195
6900.000000 82.858 161.9298
7000.000000 82.947 165.3907
7100.000000 83.068 169.1662
7200.000000 83.346 173.3629
7300.000000 83.890 177.1061
7400.000000 84.641 179.0158
7500.000000 85.407 178.5473
7620.000000 86.134 175.4821
7750.000000 86.556 170.2037
7880.000000 86.497 164.2752
8000.000000 86.035 159.8148
8120.000000 85.312 157.4415
8250.000000 84.429 158.1370
8380.000000 83.818 162.9253
8500.000000 83.968 169.2466
8620.000000 84.861 173.2025
8750.000000 86.189 171.9366
8850.000000 87.135 166.8622
9000.000000 87.931 153.5567
9120.000000 87.669 139.9550
9250.000000 86.267 125.7342
9380.000000 83.732 116.0157
9500.000000 80.595 115.4542
9620.000000 77.405 129.5037
9750.000000 75.890 158.7395
9880.000000 76.927 178.8985
10000.000000 78.399 -173.5264
10150.000000 79.886 -170.6577
10300.000000 80.905 -170.1040
10440.000000 81.701 -169.3743
10600.000000 82.800 -169.0954
10750.000000 83.925 -172.2583
10900.000000 84.600 -179.4110
11060.000000 84.447 172.2309
11200.000000 83.775 167.6070
11380.000000 82.750 166.5356
11500.000000 82.218 168.2475
11720.000000 81.848 173.8948
11800.000000 81.938 176.1360
12060.000000 83.039 -179.2081
12200.000000 83.976 -179.8857
12410.000000 85.501 173.8144
12500.000000 86.113 169.0416
12650.000000 86.936 158.2185
12800.000000 87.302 144.0653
13150.000000 85.079 107.7890
13200.000000 84.411 103.6701
13400.000000 81.250 92.4210
13600.000000 78.001 90.5773
13800.000000 75.951 94.2542
14000.000000 75.369 91.2063
14300.000000 74.453 70.2638
14500.000000 73.483 47.9698
14750.000000 72.661 9.8962
15000.000000 73.304 -31.5189
15250.000000 74.978 -64.4045
15500.000000 76.536 -88.1561
15750.000000 77.689 -106.6436
16000.000000 78.129 -122.7213
16250.000000 77.580 -135.5621
16500.000000 76.253 -140.8423
16750.000000 75.316 -138.3239
17000.000000 75.154 -137.0273
17250.000000 74.759 -139.9679
17500.000000 73.446 -143.0278
17750.000000 71.248 -136.4008
18000.000000 70.325 -113.2100
18250.000000 71.669 -100.4178
18500.000000 72.745 -100.6561
18750.000000 73.178 -102.0278
19000.000000 73.718 -102.4164
19250.000000 74.554 -105.0628
19500.000000 75.388 -111.3910
19750.000000 75.982 -120.7206
20000.000000 76.229 -129.6992
