* Measurement data measured by REW V5.30
* Source: EXCL: FiiO JA11 (2- JadeAudio JA11), MICROPHONE (Master Volume), 0, volume: 1.000
* Format: 256k Log Swept Sine, 1 sweep at -18.0 dBFS with no timing reference
* Dated: Dec 8, 2024 2:55:25 PM
* REW Settings:
*  C-weighting compensation: Off
*  Target level: 75.0 dB
* Note: ; 
* Measurement: Aeolus (Au Hy Perf) L5
* Smoothing: 1/24 octave
* Frequency Step: 1/48 octave
* Start Frequency: 20.300 Hz
*
* Freq(Hz) SPL(dB) Phase(degrees)
20.299999 84.106 -102.4630
20.600000 84.180 -103.2271
20.900000 84.261 -104.0519
21.200001 84.344 -104.8737
21.400000 84.400 -105.4155
21.799999 84.514 -106.4781
22.000000 84.572 -106.9973
22.400000 84.688 -108.0132
22.700001 84.774 -108.7617
23.000000 84.856 -109.5051
23.299999 84.931 -110.2448
23.600000 84.998 -110.9757
24.000000 85.074 -111.9174
24.299999 85.123 -112.5854
24.700001 85.185 -113.4174
25.000000 85.233 -114.0057
25.400000 85.303 -114.7684
25.799999 85.378 -115.5379
26.200001 85.456 -116.3344
26.500000 85.514 -116.9498
26.900000 85.588 -117.7816
27.200001 85.642 -118.4005
27.600000 85.710 -119.1983
28.000000 85.777 -119.9474
28.500000 85.859 -120.8078
29.000000 85.940 -121.6065
29.500000 86.012 -122.3864
30.000000 86.073 -123.1863
30.400000 86.115 -123.8602
30.700001 86.145 -124.3925
31.100000 86.185 -125.1366
31.500000 86.224 -125.8980
32.000000 86.276 -126.7991
32.500000 86.333 -127.5603
33.000000 86.400 -128.1852
33.500000 86.472 -128.7906
34.000000 86.525 -129.4815
34.500000 86.546 -130.2299
35.000000 86.544 -130.9091
35.500000 86.557 -131.4564
36.000000 86.609 -131.9521
36.500000 86.690 -132.5164
37.000000 86.765 -133.1639
37.500000 86.813 -133.8147
38.200001 86.845 -134.6794
38.700001 86.865 -135.3729
39.500000 86.908 -136.7343
40.000000 86.943 -137.6003
40.599998 86.996 -138.4580
41.200001 87.054 -139.0837
41.799999 87.096 -139.5576
42.500000 87.117 -140.0804
43.099998 87.123 -140.6795
43.700001 87.119 -141.5009
44.400002 87.092 -142.5359
45.000000 87.064 -143.2133
45.500000 87.058 -143.6071
46.200001 87.077 -144.1229
46.799999 87.092 -144.6487
47.500000 87.087 -145.2526
48.200001 87.065 -145.7558
48.700001 87.039 -146.0662
49.400002 86.988 -146.4001
50.000000 86.953 -146.5755
50.799999 86.955 -146.8437
51.500000 86.983 -147.2216
52.200001 87.004 -147.5509
53.000000 87.028 -147.7298
53.799999 87.056 -147.8793
54.500000 87.085 -148.0863
55.200001 87.125 -148.3669
56.000000 87.181 -148.7755
57.000000 87.230 -149.3219
58.000000 87.244 -149.9022
59.000000 87.235 -150.5393
60.000000 87.242 -151.1553
60.799999 87.256 -151.6415
61.500000 87.258 -151.9914
62.200001 87.255 -152.2309
63.000000 87.256 -152.4379
64.000000 87.267 -152.7158
65.000000 87.288 -153.0472
66.000000 87.305 -153.3759
67.000000 87.320 -153.6022
68.000000 87.342 -153.8450
69.000000 87.362 -154.1979
70.000000 87.375 -154.5783
71.000000 87.383 -154.9227
72.000000 87.386 -155.2015
73.000000 87.389 -155.4130
74.000000 87.400 -155.5412
75.000000 87.428 -155.6465
76.199997 87.465 -155.8546
77.500000 87.503 -156.1063
78.800003 87.545 -156.3859
80.000000 87.585 -156.6686
81.199997 87.624 -157.0171
82.500000 87.668 -157.3685
83.800003 87.717 -157.6977
85.000000 87.764 -158.0522
86.199997 87.808 -158.4612
87.500000 87.846 -158.9175
88.500000 87.873 -159.2393
90.000000 87.919 -159.7608
91.199997 87.948 -160.2034
92.500000 87.968 -160.6760
93.800003 87.990 -161.1835
95.000000 88.011 -161.7275
96.199997 88.017 -162.2574
97.500000 88.004 -162.8019
98.800003 87.987 -163.4570
100.000000 87.979 -164.0975
101.500000 87.999 -164.6411
103.000000 88.002 -165.0848
104.400002 87.972 -165.5475
106.000000 87.908 -166.0484
107.500000 87.836 -166.3497
109.000000 87.778 -166.4926
110.599998 87.743 -166.5107
112.000000 87.723 -166.5339
113.800003 87.716 -166.6188
115.000000 87.719 -166.7194
117.199997 87.717 -167.0250
118.000000 87.713 -167.1583
120.599998 87.693 -167.5803
122.000000 87.674 -167.7914
124.099998 87.635 -168.0490
125.000000 87.619 -168.1172
126.500000 87.596 -168.1906
128.000000 87.576 -168.2383
131.500000 87.541 -168.2846
132.000000 87.537 -168.2862
134.000000 87.524 -168.2440
136.000000 87.516 -168.1739
138.000000 87.511 -168.1552
140.000000 87.521 -168.1552
143.000000 87.537 -168.1810
145.000000 87.531 -168.1480
147.500000 87.517 -167.9941
150.000000 87.501 -167.8414
152.500000 87.538 -167.6665
155.000000 87.598 -167.5016
157.500000 87.685 -167.3851
160.000000 87.800 -167.2588
162.500000 87.846 -167.4875
165.000000 87.867 -167.7692
167.500000 87.909 -168.0220
170.000000 87.966 -168.3734
172.500000 88.014 -168.6812
175.000000 88.043 -168.9479
177.500000 88.041 -169.2240
180.000000 88.020 -169.5687
182.500000 88.010 -169.9281
185.000000 88.009 -170.0037
187.500000 88.022 -170.0681
190.000000 88.071 -170.3929
192.500000 88.131 -171.0346
195.000000 88.149 -171.3073
197.500000 88.147 -171.4709
200.000000 88.158 -172.0975
203.000000 88.204 -172.1962
206.000000 88.227 -172.0870
209.000000 88.219 -172.0592
212.000000 88.224 -171.8926
214.000000 88.245 -171.8439
218.000000 88.329 -172.0037
220.000000 88.392 -172.2719
224.000000 88.469 -172.8447
227.000000 88.495 -173.1815
230.000000 88.529 -173.5571
233.000000 88.554 -173.9334
236.000000 88.529 -174.2504
240.000000 88.478 -175.4582
243.000000 88.524 -176.2773
247.000000 88.609 -176.6467
250.000000 88.616 -177.1333
254.000000 88.574 -177.9036
258.000000 88.505 -178.4909
262.000000 88.446 -178.8808
265.000000 88.409 -179.1292
269.000000 88.356 -179.3452
272.000000 88.316 -179.4672
276.000000 88.265 -179.5872
280.000000 88.232 -179.6465
285.000000 88.222 -179.6502
290.000000 88.239 -179.7169
295.000000 88.272 -179.7790
300.000000 88.287 179.8970
304.000000 88.284 179.4376
307.000000 88.273 178.9847
311.000000 88.260 178.5166
315.000000 88.246 178.1158
320.000000 88.219 177.6346
325.000000 88.209 177.1255
330.000000 88.184 176.6388
335.000000 88.118 176.1262
340.000000 88.035 175.6024
345.000000 87.964 175.4121
350.000000 87.927 175.1635
355.000000 87.884 174.7417
360.000000 87.801 174.6480
365.000000 87.721 174.6494
370.000000 87.661 174.5375
375.000000 87.601 174.4647
382.000000 87.502 174.4043
387.000000 87.439 174.5813
395.000000 87.360 174.8343
400.000000 87.332 174.7421
406.000000 87.314 174.9279
412.000000 87.310 175.1804
418.000000 87.279 175.3267
425.000000 87.258 175.3509
431.000000 87.258 175.3049
437.000000 87.264 175.1484
444.000000 87.269 174.9229
450.000000 87.266 174.8337
455.000000 87.266 174.7418
462.000000 87.253 174.4096
468.000000 87.224 174.0198
475.000000 87.184 173.5990
482.000000 87.144 173.2519
487.000000 87.109 172.9542
494.000000 87.039 172.4959
500.000000 86.963 172.1457
508.000000 86.836 171.7822
515.000000 86.709 171.5565
522.000000 86.573 171.4973
530.000000 86.424 171.6716
538.000000 86.289 171.9336
545.000000 86.173 172.2700
552.000000 86.057 172.7505
560.000000 85.943 173.5425
570.000000 85.848 174.5538
580.000000 85.782 175.5568
590.000000 85.771 176.5882
600.000000 85.796 177.4749
608.000000 85.825 177.9861
615.000000 85.849 178.3961
622.000000 85.874 178.7812
630.000000 85.916 179.1406
640.000000 85.977 179.3464
650.000000 86.014 179.4426
660.000000 86.040 179.3150
670.000000 85.990 178.9625
680.000000 85.856 179.1994
690.000000 85.785 -179.5366
700.000000 85.869 -178.3251
710.000000 85.993 -177.8972
720.000000 86.084 -177.7601
730.000000 86.172 -177.7380
740.000000 86.249 -177.9563
750.000000 86.295 -178.2195
762.000000 86.337 -178.4688
775.000000 86.385 -178.8522
788.000000 86.390 -179.4682
800.000000 86.364 -179.9566
812.000000 86.326 179.6699
825.000000 86.239 179.0536
838.000000 86.061 178.9219
850.000000 85.919 179.4904
862.000000 85.842 -179.6947
875.000000 85.822 -178.6907
885.000000 85.869 -177.9136
900.000000 86.009 -177.4653
912.000000 86.097 -177.6636
925.000000 86.129 -178.2419
938.000000 86.090 -178.6921
950.000000 86.041 -178.9179
962.000000 85.973 -179.1048
975.000000 85.884 -179.0023
988.000000 85.822 -178.5540
1000.000000 85.812 -178.1093
1015.000000 85.834 -178.0056
1030.000000 85.823 -178.3124
1044.000000 85.753 -178.7096
1060.000000 85.580 -178.8013
1075.000000 85.406 -178.1880
1090.000000 85.270 -177.1472
1106.000000 85.193 -175.5630
1120.000000 85.244 -174.0342
1138.000000 85.420 -173.2337
1150.000000 85.477 -173.3433
1172.000000 85.459 -173.0924
1180.000000 85.451 -172.8302
1206.000000 85.469 -171.5987
1220.000000 85.555 -170.9748
1241.000000 85.686 -170.8365
1250.000000 85.720 -170.9136
1265.000000 85.737 -171.0758
1280.000000 85.717 -171.0320
1315.000000 85.741 -170.2332
1320.000000 85.754 -170.1543
1340.000000 85.803 -170.0367
1360.000000 85.836 -170.0747
1380.000000 85.819 -170.3079
1400.000000 85.748 -170.1604
1430.000000 85.702 -169.4811
1450.000000 85.666 -169.1549
1475.000000 85.601 -168.4164
1500.000000 85.596 -167.2464
1525.000000 85.657 -166.4199
1550.000000 85.696 -165.9666
1575.000000 85.696 -165.4001
1600.000000 85.683 -164.7054
1625.000000 85.660 -163.5813
1650.000000 85.721 -161.9842
1675.000000 85.886 -160.6981
1700.000000 86.068 -160.0036
1725.000000 86.228 -159.5630
1750.000000 86.376 -159.2378
1775.000000 86.512 -159.0328
1800.000000 86.629 -158.9118
1825.000000 86.735 -158.7655
1850.000000 86.840 -158.5958
1875.000000 86.946 -158.4371
1900.000000 87.053 -158.3086
1925.000000 87.158 -158.2325
1950.000000 87.263 -158.1747
1975.000000 87.367 -158.1904
2000.000000 87.464 -158.2645
2030.000000 87.563 -158.3483
2060.000000 87.674 -158.3459
2090.000000 87.792 -158.5937
2120.000000 87.864 -158.9733
2140.000000 87.890 -159.1251
2180.000000 87.937 -159.1253
2200.000000 87.965 -159.0687
2240.000000 88.001 -158.8046
2270.000000 88.036 -158.1270
2300.000000 88.157 -157.1373
2330.000000 88.369 -156.4435
2360.000000 88.612 -156.2328
2400.000000 88.937 -156.5549
2430.000000 89.155 -157.2214
2470.000000 89.374 -158.4187
2500.000000 89.490 -159.2848
2540.000000 89.619 -160.2466
2580.000000 89.750 -161.1087
2620.000000 89.888 -162.0331
2650.000000 89.981 -162.8183
2690.000000 90.087 -163.8678
2720.000000 90.164 -164.6195
2760.000000 90.271 -165.7046
2800.000000 90.362 -166.9444
2850.000000 90.430 -168.5327
2900.000000 90.480 -169.9921
2950.000000 90.503 -171.5271
3000.000000 90.474 -172.8716
3040.000000 90.432 -173.5589
3070.000000 90.422 -173.7355
3110.000000 90.503 -173.6727
3150.000000 90.722 -173.9663
3200.000000 91.055 -175.8239
3250.000000 91.244 -178.8959
3300.000000 91.284 178.0484
3350.000000 91.283 175.1509
3400.000000 91.243 171.9969
3450.000000 91.115 168.6671
3500.000000 90.894 165.4527
3550.000000 90.603 162.4994
3600.000000 90.258 159.8322
3650.000000 89.871 157.4782
3700.000000 89.457 155.4287
3750.000000 89.024 153.6262
3820.000000 88.386 151.4159
3870.000000 87.900 150.0306
3950.000000 87.062 148.1723
4000.000000 86.485 147.2335
4060.000000 85.718 146.4770
4120.000000 84.862 146.3794
4180.000000 83.920 147.2241
4250.000000 82.745 150.2589
4310.000000 81.876 155.3032
4370.000000 81.383 160.6137
4440.000000 80.826 164.1208
4500.000000 79.975 168.1161
4550.000000 79.160 174.5547
4620.000000 78.503 -169.5304
4680.000000 79.380 -150.6180
4750.000000 82.312 -135.7685
4820.000000 85.414 -137.5073
4870.000000 86.908 -145.6593
4940.000000 87.749 -160.2704
5000.000000 87.529 -171.9295
5080.000000 86.388 175.9511
5150.000000 84.829 168.5534
5220.000000 82.748 164.4488
5300.000000 79.625 166.4419
5380.000000 76.453 -168.7295
5450.000000 77.638 -112.7466
5520.000000 81.791 -91.0413
5600.000000 85.965 -93.1297
5700.000000 89.408 -107.1614
5800.000000 91.115 -124.7157
5900.000000 91.506 -140.7037
6000.000000 91.120 -152.9011
6080.000000 90.518 -159.7732
6150.000000 89.895 -163.7688
6220.000000 89.271 -166.0550
6300.000000 88.644 -167.0125
6400.000000 88.058 -166.7091
6500.000000 87.679 -165.5784
6600.000000 87.496 -164.1440
6700.000000 87.470 -163.0099
6800.000000 87.545 -162.4108
6900.000000 87.679 -162.6458
7000.000000 87.766 -163.8600
7100.000000 87.722 -165.5429
7200.000000 87.538 -167.0802
7300.000000 87.253 -167.9751
7400.000000 86.941 -167.9504
7500.000000 86.688 -167.1361
7620.000000 86.524 -165.7569
7750.000000 86.491 -164.6686
7880.000000 86.453 -164.3412
8000.000000 86.329 -163.6663
8120.000000 86.321 -161.7625
8250.000000 86.665 -160.0670
8380.000000 87.189 -161.1451
8500.000000 87.446 -164.7726
8620.000000 87.258 -168.8709
8750.000000 86.673 -171.0976
8850.000000 86.205 -170.3861
9000.000000 85.968 -166.6191
9120.000000 86.338 -164.1741
9250.000000 87.032 -165.0393
9380.000000 87.554 -170.0238
9500.000000 87.548 -176.8583
9620.000000 86.943 176.3622
9750.000000 85.689 171.5766
9880.000000 84.064 171.4244
10000.000000 82.542 176.5095
10150.000000 81.282 -169.2172
10300.000000 81.719 -150.3492
10440.000000 83.595 -138.4726
10600.000000 86.120 -136.3564
10750.000000 87.966 -142.2474
10900.000000 89.053 -151.6151
11060.000000 89.477 -162.1702
11200.000000 89.442 -170.7157
11380.000000 88.987 178.8519
11500.000000 88.351 172.4088
11720.000000 86.399 164.4239
11800.000000 85.482 163.8350
12060.000000 82.981 177.5231
12200.000000 83.344 -169.5042
12410.000000 85.549 -163.2274
12500.000000 86.442 -165.0829
12650.000000 87.611 -171.0584
12800.000000 88.435 -178.9091
13150.000000 89.357 158.6721
13200.000000 89.377 155.1499
13400.000000 89.179 140.7241
13600.000000 88.561 126.1995
13800.000000 87.503 112.1280
14000.000000 85.959 99.8777
14300.000000 83.316 88.2681
14500.000000 82.103 82.4402
14750.000000 81.122 69.6773
15000.000000 79.399 49.9130
15250.000000 75.990 30.3157
15500.000000 71.081 22.8878
15750.000000 67.692 32.1158
16000.000000 68.661 28.7332
16250.000000 70.441 10.2393
16500.000000 71.606 -11.0730
16750.000000 72.052 -29.1693
17000.000000 72.102 -42.2728
17250.000000 71.999 -52.9429
17500.000000 71.365 -63.8182
17750.000000 69.699 -73.1603
18000.000000 66.986 -76.9252
18250.000000 63.621 -72.9800
18500.000000 59.971 -58.2245
18750.000000 58.182 -2.8774
19000.000000 60.811 35.2876
19250.000000 63.863 39.0919
19500.000000 65.889 34.9291
19750.000000 67.123 30.4309
20000.000000 67.796 27.7639
